#half-wave plate set to 15
#{"CCD_temperature": "-81", "FELP": "1.3", "FELRR": "0.75", "FEL_lambda": "610", "NIRP": "679", "NIR_lambda": "797.1", "addenda": [0, "checkingPolarization34"], "bg_file_name": "checkingPolarizationBG23", "center_lambda": 769.0, "dark_region": null, "exposure": 40.0, "gain": 135, "grating": 2, "series": "", "slits": "50", "subtrahenda": ["checkingPolarizationBG23"], "y_max": 400, "y_min": 0}
#Wavelength,Signal
#nm,arb. u.
757.156343,-37.000000
757.171246,16.000000
757.186149,-12.000000
757.201051,-94.000000
757.215953,-54.000000
757.230855,47.000000
757.245757,59.000000
757.260659,-53.000000
757.275560,-24.000000
757.290462,-58.000000
757.305363,-3.000000
757.320264,-30.000000
757.335164,-54.000000
757.350065,21.000000
757.364965,-44.000000
757.379865,-46.000000
757.394765,-60.000000
757.409665,-77.000000
757.424565,-20.000000
757.439464,7.000000
757.454363,4.000000
757.469262,-16.000000
757.484161,-47.000000
757.499059,-66.000000
757.513958,-19.000000
757.528856,52.000000
757.543754,-57.000000
757.558652,88.000000
757.573549,77.000000
757.588446,-50.000000
757.603344,-27.000000
757.618241,-29.000000
757.633137,6.000000
757.648034,22.000000
757.662931,-11.000000
757.677827,-46.000000
757.692723,76.000000
757.707619,6.000000
757.722514,-11.000000
757.737410,-7.000000
757.752305,16.000000
757.767200,90.000000
757.782095,-46.000000
757.796989,-22.000000
757.811884,-40.000000
757.826778,-40.000000
757.841672,38.000000
757.856566,-8.000000
757.871460,-30.000000
757.886353,-124.000000
757.901247,-15.000000
757.916140,-13.000000
757.931033,-6.000000
757.945925,-13.000000
757.960818,-36.000000
757.975710,-33.000000
757.990602,21.000000
758.005494,-21.000000
758.020386,-96.000000
758.035277,-35.000000
758.050169,-26.000000
758.065060,-29.000000
758.079951,-59.000000
758.094842,-53.000000
758.109732,41.000000
758.124622,4.000000
758.139513,-50.000000
758.154403,-67.000000
758.169292,-61.000000
758.184182,-46.000000
758.199071,13.000000
758.213961,-55.000000
758.228849,-11.000000
758.243738,-33.000000
758.258627,32.000000
758.273515,-13.000000
758.288403,-82.000000
758.303291,20.000000
758.318179,59.000000
758.333067,18.000000
758.347954,-80.000000
758.362842,-52.000000
758.377729,3.000000
758.392615,46.000000
758.407502,-61.000000
758.422388,-52.000000
758.437275,-30.000000
758.452161,-18.000000
758.467047,-8.000000
758.481932,-106.000000
758.496818,-77.000000
758.511703,42.000000
758.526588,32.000000
758.541473,-54.000000
758.556358,-10.000000
758.571242,-27.000000
758.586126,7.000000
758.601010,0.000000
758.615894,-27.000000
758.630778,0.000000
758.645662,-16.000000
758.660545,0.000000
758.675428,-81.000000
758.690311,-58.000000
758.705194,-4.000000
758.720076,-6.000000
758.734958,-130.000000
758.749841,-42.000000
758.764722,-28.000000
758.779604,-76.000000
758.794486,-6.000000
758.809367,-42.000000
758.824248,0.000000
758.839129,-66.000000
758.854010,-23.000000
758.868890,-56.000000
758.883771,-46.000000
758.898651,-56.000000
758.913531,11.000000
758.928411,-3.000000
758.943290,18.000000
758.958170,-70.000000
758.973049,-36.000000
758.987928,24.000000
759.002806,-2.000000
759.017685,-61.000000
759.032563,-25.000000
759.047442,7.000000
759.062320,19.000000
759.077197,-22.000000
759.092075,-59.000000
759.106952,1.000000
759.121830,-21.000000
759.136707,-2.000000
759.151583,3.000000
759.166460,11.000000
759.181336,1.000000
759.196213,28.000000
759.211089,-43.000000
759.225964,-70.000000
759.240840,-59.000000
759.255716,-6.000000
759.270591,-36.000000
759.285466,-24.000000
759.300341,-32.000000
759.315215,23.000000
759.330090,-5.000000
759.344964,-30.000000
759.359838,-50.000000
759.374712,0.000000
759.389585,-2.000000
759.404459,-23.000000
759.419332,-32.000000
759.434205,-25.000000
759.449078,3.000000
759.463951,1.000000
759.478823,-77.000000
759.493696,-11.000000
759.508568,-17.000000
759.523439,-36.000000
759.538311,-47.000000
759.553183,-65.000000
759.568054,-38.000000
759.582925,23.000000
759.597796,15.000000
759.612667,-72.000000
759.627537,-21.000000
759.642407,-55.000000
759.657277,-4.000000
759.672147,-20.000000
759.687017,-50.000000
759.701886,-42.000000
759.716756,-10.000000
759.731625,-38.000000
759.746494,-5.000000
759.761363,-33.000000
759.776231,32.000000
759.791099,41.000000
759.805967,-14.000000
759.820835,-45.000000
759.835703,-36.000000
759.850571,-4.000000
759.865438,-7.000000
759.880305,-46.000000
759.895172,54.000000
759.910039,-31.000000
759.924905,47.000000
759.939772,-36.000000
759.954638,-35.000000
759.969504,-48.000000
759.984369,25.000000
759.999235,33.000000
760.014100,-9.000000
760.028965,-22.000000
760.043830,21.000000
760.058695,16.000000
760.073560,22.000000
760.088424,-37.000000
760.103288,-36.000000
760.118152,-40.000000
760.133016,43.000000
760.147879,-82.000000
760.162743,3.000000
760.177606,-24.000000
760.192469,3.000000
760.207332,-42.000000
760.222194,-71.000000
760.237057,-8.000000
760.251919,60.000000
760.266781,13.000000
760.281642,-22.000000
760.296504,-14.000000
760.311365,-19.000000
760.326227,28.000000
760.341087,26.000000
760.355948,4.000000
760.370809,-57.000000
760.385669,29.000000
760.400529,-10.000000
760.415389,-17.000000
760.430249,-13.000000
760.445109,9.000000
760.459968,21.000000
760.474827,8.000000
760.489686,-32.000000
760.504545,-59.000000
760.519404,-44.000000
760.534262,-21.000000
760.549120,-66.000000
760.563978,-103.000000
760.578836,-10.000000
760.593694,15.000000
760.608551,27.000000
760.623408,-34.000000
760.638265,-59.000000
760.653122,20.000000
760.667979,8.000000
760.682835,-54.000000
760.697691,-19.000000
760.712547,22.000000
760.727403,-1.000000
760.742259,14.000000
760.757114,-52.000000
760.771969,-20.000000
760.786824,16.000000
760.801679,18.000000
760.816534,-40.000000
760.831388,-46.000000
760.846242,-3.000000
760.861096,43.000000
760.875950,-44.000000
760.890804,8.000000
760.905657,-39.000000
760.920510,37.000000
760.935363,19.000000
760.950216,8.000000
760.965069,-88.000000
760.979921,-38.000000
760.994773,-4.000000
761.009625,-38.000000
761.024477,8.000000
761.039329,-24.000000
761.054180,-55.000000
761.069031,29.000000
761.083882,-51.000000
761.098733,-19.000000
761.113584,-23.000000
761.128434,30.000000
761.143284,-25.000000
761.158134,-69.000000
761.172984,-5.000000
761.187834,23.000000
761.202683,60.000000
761.217532,-27.000000
761.232381,-91.000000
761.247230,19.000000
761.262079,12.000000
761.276927,-89.000000
761.291775,-61.000000
761.306623,-41.000000
761.321471,-31.000000
761.336319,35.000000
761.351166,-6.000000
761.366013,17.000000
761.380860,17.000000
761.395707,13.000000
761.410554,-17.000000
761.425400,-35.000000
761.440246,-16.000000
761.455092,-61.000000
761.469938,55.000000
761.484784,5.000000
761.499629,-72.000000
761.514474,-14.000000
761.529319,-3.000000
761.544164,-37.000000
761.559009,-52.000000
761.573853,-53.000000
761.588697,-72.000000
761.603541,-21.000000
761.618385,11.000000
761.633229,-49.000000
761.648072,-21.000000
761.662915,-8.000000
761.677758,-20.000000
761.692601,-17.000000
761.707444,-81.000000
761.722286,52.000000
761.737128,38.000000
761.751970,11.000000
761.766812,-18.000000
761.781654,-99.000000
761.796495,-11.000000
761.811336,52.000000
761.826177,-43.000000
761.841018,-24.000000
761.855859,60.000000
761.870699,39.000000
761.885539,-39.000000
761.900379,-32.000000
761.915219,-18.000000
761.930059,52.000000
761.944898,-28.000000
761.959737,-16.000000
761.974576,-57.000000
761.989415,-8.000000
762.004254,-8.000000
762.019092,-28.000000
762.033930,-25.000000
762.048768,-12.000000
762.063606,-3.000000
762.078444,15.000000
762.093281,-70.000000
762.108118,-34.000000
762.122955,33.000000
762.137792,-21.000000
762.152628,-51.000000
762.167465,-25.000000
762.182301,-15.000000
762.197137,66.000000
762.211973,42.000000
762.226808,127.000000
762.241644,174.000000
762.256479,90.000000
762.271314,46.000000
762.286148,-33.000000
762.300983,32.000000
762.315817,-88.000000
762.330652,35.000000
762.345485,-34.000000
762.360319,-25.000000
762.375153,-56.000000
762.389986,-28.000000
762.404819,24.000000
762.419652,32.000000
762.434485,8.000000
762.449317,10.000000
762.464150,52.000000
762.478982,-5.000000
762.493814,-13.000000
762.508646,9.000000
762.523477,21.000000
762.538308,16.000000
762.553140,18.000000
762.567971,0.000000
762.582801,-56.000000
762.597632,40.000000
762.612462,-20.000000
762.627292,13.000000
762.642122,-39.000000
762.656952,-26.000000
762.671781,0.000000
762.686611,-30.000000
762.701440,-76.000000
762.716269,-27.000000
762.731097,26.000000
762.745926,17.000000
762.760754,-2.000000
762.775582,-34.000000
762.790410,6.000000
762.805238,-20.000000
762.820065,3.000000
762.834893,-64.000000
762.849720,-24.000000
762.864547,22.000000
762.879373,81.000000
762.894200,-40.000000
762.909026,-51.000000
762.923852,32.000000
762.938678,-10.000000
762.953504,-46.000000
762.968329,-38.000000
762.983154,-9.000000
762.997979,6.000000
763.012804,10.000000
763.027629,-20.000000
763.042453,-81.000000
763.057278,-22.000000
763.072102,-22.000000
763.086926,-9.000000
763.101749,-28.000000
763.116573,-36.000000
763.131396,-2.000000
763.146219,14.000000
763.161042,-18.000000
763.175864,-35.000000
763.190687,-5.000000
763.205509,65.000000
763.220331,4.000000
763.235153,-110.000000
763.249975,4.000000
763.264796,15.000000
763.279617,-16.000000
763.294438,-65.000000
763.309259,-52.000000
763.324080,-14.000000
763.338900,2.000000
763.353720,11.000000
763.368540,14.000000
763.383360,-34.000000
763.398180,-18.000000
763.412999,16.000000
763.427818,-12.000000
763.442637,-21.000000
763.457456,-32.000000
763.472274,79.000000
763.487093,181.000000
763.501911,-351.000000
763.516729,68.000000
763.531547,42.000000
763.546364,53.000000
763.561182,-10.000000
763.575999,-14.000000
763.590816,-71.000000
763.605633,30.000000
763.620449,19.000000
763.635265,-61.000000
763.650082,-49.000000
763.664897,5.000000
763.679713,-38.000000
763.694529,-10.000000
763.709344,-11.000000
763.724159,17.000000
763.738974,-54.000000
763.753789,-16.000000
763.768603,-45.000000
763.783418,-80.000000
763.798232,-13.000000
763.813046,-8.000000
763.827859,3.000000
763.842673,-52.000000
763.857486,29.000000
763.872299,37.000000
763.887112,9.000000
763.901925,-38.000000
763.916737,-49.000000
763.931549,-25.000000
763.946362,24.000000
763.961173,-20.000000
763.975985,-59.000000
763.990796,-26.000000
764.005608,10.000000
764.020419,23.000000
764.035230,9.000000
764.050040,-5.000000
764.064851,5.000000
764.079661,-47.000000
764.094471,-29.000000
764.109281,-44.000000
764.124090,-25.000000
764.138900,23.000000
764.153709,-9.000000
764.168518,-4.000000
764.183327,-14.000000
764.198135,25.000000
764.212944,9.000000
764.227752,-50.000000
764.242560,-46.000000
764.257368,7.000000
764.272175,40.000000
764.286983,25.000000
764.301790,-40.000000
764.316597,-66.000000
764.331404,-20.000000
764.346210,34.000000
764.361017,-2.000000
764.375823,-103.000000
764.390629,-16.000000
764.405434,18.000000
764.420240,-15.000000
764.435045,-26.000000
764.449850,-19.000000
764.464655,28.000000
764.479460,-8.000000
764.494264,-42.000000
764.509069,3.000000
764.523873,33.000000
764.538677,-5.000000
764.553480,36.000000
764.568284,25.000000
764.583087,91.000000
764.597890,93.000000
764.612693,235.000000
764.627496,96.000000
764.642298,-21.000000
764.657101,41.000000
764.671903,-11.000000
764.686705,-16.000000
764.701506,-17.000000
764.716308,-65.000000
764.731109,7.000000
764.745910,-41.000000
764.760711,-14.000000
764.775511,-59.000000
764.790312,-62.000000
764.805112,-12.000000
764.819912,-20.000000
764.834712,3.000000
764.849511,-45.000000
764.864311,-6.000000
764.879110,-83.000000
764.893909,7.000000
764.908708,-16.000000
764.923506,-56.000000
764.938305,-15.000000
764.953103,-2.000000
764.967901,13.000000
764.982698,-30.000000
764.997496,-2.000000
765.012293,-11.000000
765.027091,-62.000000
765.041887,-38.000000
765.056684,-11.000000
765.071481,-21.000000
765.086277,28.000000
765.101073,-62.000000
765.115869,-15.000000
765.130665,-8.000000
765.145460,-7.000000
765.160256,2.000000
765.175051,0.000000
765.189845,-14.000000
765.204640,27.000000
765.219435,-13.000000
765.234229,-39.000000
765.249023,-36.000000
765.263817,-17.000000
765.278610,27.000000
765.293404,-3.000000
765.308197,-15.000000
765.322990,-18.000000
765.337783,-34.000000
765.352576,32.000000
765.367368,-2.000000
765.382160,-68.000000
765.396952,-52.000000
765.411744,-28.000000
765.426536,-41.000000
765.441327,25.000000
765.456118,-74.000000
765.470909,9.000000
765.485700,20.000000
765.500490,-30.000000
765.515281,-89.000000
765.530071,-56.000000
765.544861,-18.000000
765.559651,-40.000000
765.574440,-50.000000
765.589229,50.000000
765.604019,42.000000
765.618807,-36.000000
765.633596,-47.000000
765.648385,-69.000000
765.663173,2.000000
765.677961,-35.000000
765.692749,-23.000000
765.707537,-71.000000
765.722324,-12.000000
765.737111,-1.000000
765.751898,6.000000
765.766685,-43.000000
765.781472,-51.000000
765.796258,-4.000000
765.811044,4.000000
765.825831,-39.000000
765.840616,-69.000000
765.855402,7.000000
765.870187,42.000000
765.884973,-51.000000
765.899758,-24.000000
765.914542,-63.000000
765.929327,-22.000000
765.944111,-8.000000
765.958895,-2.000000
765.973679,-87.000000
765.988463,7.000000
766.003247,66.000000
766.018030,48.000000
766.032813,-63.000000
766.047596,-59.000000
766.062379,7.000000
766.077161,-42.000000
766.091944,41.000000
766.106726,8.000000
766.121508,-6.000000
766.136289,-19.000000
766.151071,43.000000
766.165852,-30.000000
766.180633,-50.000000
766.195414,-9.000000
766.210195,51.000000
766.224975,-50.000000
766.239755,-58.000000
766.254535,-74.000000
766.269315,-51.000000
766.284095,-6.000000
766.298874,-61.000000
766.313653,-80.000000
766.328432,9.000000
766.343211,-10.000000
766.357990,-4.000000
766.372768,-67.000000
766.387546,-30.000000
766.402324,1.000000
766.417102,-87.000000
766.431880,-58.000000
766.446657,-69.000000
766.461434,-15.000000
766.476211,-14.000000
766.490988,-24.000000
766.505764,-55.000000
766.520540,10.000000
766.535317,-32.000000
766.550092,-10.000000
766.564868,-37.000000
766.579644,-28.000000
766.594419,21.000000
766.609194,14.000000
766.623969,-14.000000
766.638743,-83.000000
766.653518,-17.000000
766.668292,9.000000
766.683066,16.000000
766.697840,-2.000000
766.712613,-12.000000
766.727387,-25.000000
766.742160,-17.000000
766.756933,-15.000000
766.771706,-77.000000
766.786478,-1.000000
766.801251,-11.000000
766.816023,-5.000000
766.830795,-36.000000
766.845567,2.000000
766.860338,-9.000000
766.875109,8.000000
766.889881,-32.000000
766.904651,-30.000000
766.919422,6.000000
766.934193,24.000000
766.948963,92.000000
766.963733,144.000000
766.978503,462.000000
766.993273,417.000000
767.008042,259.000000
767.022811,40.000000
767.037580,-46.000000
767.052349,-19.000000
767.067118,11.000000
767.081886,38.000000
767.096654,3.000000
767.111422,-52.000000
767.126190,35.000000
767.140958,14.000000
767.155725,-10.000000
767.170492,-99.000000
767.185259,-12.000000
767.200026,4.000000
767.214792,32.000000
767.229559,-5.000000
767.244325,-44.000000
767.259091,-8.000000
767.273856,-14.000000
767.288622,-31.000000
767.303387,-41.000000
767.318152,-40.000000
767.332917,14.000000
767.347682,75.000000
767.362446,-26.000000
767.377211,-40.000000
767.391975,-3.000000
767.406738,-42.000000
767.421502,-1.000000
767.436265,-26.000000
767.451029,-60.000000
767.465792,27.000000
767.480554,5.000000
767.495317,-22.000000
767.510079,-46.000000
767.524842,54.000000
767.539603,50.000000
767.554365,-11.000000
767.569127,-41.000000
767.583888,-11.000000
767.598649,4.000000
767.613410,9.000000
767.628171,-58.000000
767.642931,-8.000000
767.657692,-5.000000
767.672452,48.000000
767.687211,22.000000
767.701971,-63.000000
767.716731,-74.000000
767.731490,17.000000
767.746249,-20.000000
767.761008,-21.000000
767.775766,-38.000000
767.790525,62.000000
767.805283,12.000000
767.820041,5.000000
767.834799,-6.000000
767.849556,-48.000000
767.864314,14.000000
767.879071,-2.000000
767.893828,-20.000000
767.908584,-63.000000
767.923341,-35.000000
767.938097,-26.000000
767.952853,3.000000
767.967609,-90.000000
767.982365,13.000000
767.997120,12.000000
768.011876,20.000000
768.026631,0.000000
768.041385,-61.000000
768.056140,1.000000
768.070894,8.000000
768.085649,-4.000000
768.100403,2.000000
768.115156,39.000000
768.129910,4.000000
768.144663,-5.000000
768.159417,-4.000000
768.174170,-60.000000
768.188922,0.000000
768.203675,8.000000
768.218427,42.000000
768.233179,-18.000000
768.247931,-17.000000
768.262683,-12.000000
768.277434,5.000000
768.292186,26.000000
768.306937,-27.000000
768.321688,-5.000000
768.336438,-6.000000
768.351189,13.000000
768.365939,-27.000000
768.380689,-63.000000
768.395439,-19.000000
768.410188,16.000000
768.424938,15.000000
768.439687,-78.000000
768.454436,7.000000
768.469185,10.000000
768.483933,3.000000
768.498682,-65.000000
768.513430,-32.000000
768.528178,-12.000000
768.542925,8.000000
768.557673,-29.000000
768.572420,7.000000
768.587167,-34.000000
768.601914,62.000000
768.616661,-42.000000
768.631407,-4.000000
768.646153,-18.000000
768.660899,49.000000
768.675645,44.000000
768.690391,-55.000000
768.705136,-3.000000
768.719881,32.000000
768.734626,2.000000
768.749371,-24.000000
768.764116,-8.000000
768.778860,-18.000000
768.793604,10.000000
768.808348,26.000000
768.823092,-16.000000
768.837835,-34.000000
768.852579,-72.000000
768.867322,-27.000000
768.882065,10.000000
768.896807,-32.000000
768.911550,4.000000
768.926292,8.000000
768.941034,-11.000000
768.955776,-34.000000
768.970517,-80.000000
768.985259,-3.000000
769.000000,56.000000
769.014741,3.000000
769.029482,-2.000000
769.044222,-44.000000
769.058963,6.000000
769.073703,-4.000000
769.088443,36.000000
769.103182,-52.000000
769.117922,-19.000000
769.132661,-6.000000
769.147400,13.000000
769.162139,-58.000000
769.176878,-14.000000
769.191616,42.000000
769.206354,-15.000000
769.221093,-31.000000
769.235830,-13.000000
769.250568,25.000000
769.265305,24.000000
769.280043,-20.000000
769.294779,-48.000000
769.309516,-64.000000
769.324253,8.000000
769.338989,94.000000
769.353725,234.000000
769.368461,789.000000
769.383197,986.000000
769.397932,533.000000
769.412668,124.000000
769.427403,-42.000000
769.442138,-51.000000
769.456872,57.000000
769.471607,-28.000000
769.486341,-20.000000
769.501075,-54.000000
769.515809,-6.000000
769.530542,23.000000
769.545276,44.000000
769.560009,-61.000000
769.574742,-49.000000
769.589475,-15.000000
769.604207,65.000000
769.618939,-21.000000
769.633671,-6.000000
769.648403,-21.000000
769.663135,8.000000
769.677867,-30.000000
769.692598,-53.000000
769.707329,-88.000000
769.722060,-2.000000
769.736790,10.000000
769.751521,-22.000000
769.766251,-29.000000
769.780981,-17.000000
769.795711,-16.000000
769.810440,-21.000000
769.825170,-45.000000
769.839899,-27.000000
769.854628,-34.000000
769.869356,12.000000
769.884085,-3.000000
769.898813,-82.000000
769.913541,-14.000000
769.928269,23.000000
769.942997,-34.000000
769.957724,-30.000000
769.972452,-18.000000
769.987179,-26.000000
770.001905,4.000000
770.016632,-36.000000
770.031358,-11.000000
770.046085,-51.000000
770.060811,1.000000
770.075536,-38.000000
770.090262,-27.000000
770.104987,-22.000000
770.119712,1.000000
770.134437,-71.000000
770.149162,-42.000000
770.163886,-67.000000
770.178611,-22.000000
770.193335,-16.000000
770.208058,-4.000000
770.222782,-52.000000
770.237506,-80.000000
770.252229,20.000000
770.266952,-14.000000
770.281675,-21.000000
770.296397,-48.000000
770.311119,-9.000000
770.325842,-29.000000
770.340563,13.000000
770.355285,-25.000000
770.370007,-52.000000
770.384728,-23.000000
770.399449,-11.000000
770.414170,-34.000000
770.428891,-32.000000
770.443611,-21.000000
770.458331,-7.000000
770.473051,-18.000000
770.487771,-88.000000
770.502491,-63.000000
770.517210,-20.000000
770.531929,-16.000000
770.546648,-7.000000
770.561367,-34.000000
770.576085,-20.000000
770.590804,32.000000
770.605522,47.000000
770.620240,2.000000
770.634957,-90.000000
770.649675,23.000000
770.664392,-13.000000
770.679109,37.000000
770.693826,-43.000000
770.708543,-9.000000
770.723259,22.000000
770.737975,-6.000000
770.752691,-58.000000
770.767407,-50.000000
770.782122,-63.000000
770.796838,58.000000
770.811553,-15.000000
770.826268,-39.000000
770.840983,54.000000
770.855697,20.000000
770.870411,-36.000000
770.885125,-51.000000
770.899839,-8.000000
770.914553,31.000000
770.929266,-2.000000
770.943979,-34.000000
770.958692,-40.000000
770.973405,-34.000000
770.988118,13.000000
771.002830,41.000000
771.017542,-11.000000
771.032254,-25.000000
771.046966,80.000000
771.061677,11.000000
771.076389,-26.000000
771.091100,-28.000000
771.105810,-19.000000
771.120521,27.000000
771.135232,-10.000000
771.149942,-46.000000
771.164652,-51.000000
771.179362,-44.000000
771.194071,22.000000
771.208780,5.000000
771.223490,-52.000000
771.238199,14.000000
771.252907,28.000000
771.267616,27.000000
771.282324,-46.000000
771.297032,-48.000000
771.311740,-8.000000
771.326448,-21.000000
771.341155,0.000000
771.355862,-28.000000
771.370569,-58.000000
771.385276,77.000000
771.399983,-33.000000
771.414689,-4.000000
771.429395,-52.000000
771.444101,-40.000000
771.458807,19.000000
771.473512,1.000000
771.488218,-47.000000
771.502923,-21.000000
771.517628,-2.000000
771.532332,-1.000000
771.547037,-13.000000
771.561741,-33.000000
771.576445,-42.000000
771.591149,35.000000
771.605852,-7.000000
771.620556,-60.000000
771.635259,-38.000000
771.649962,7.000000
771.664664,-30.000000
771.679367,-9.000000
771.694069,-49.000000
771.708771,7.000000
771.723473,33.000000
771.738175,134.000000
771.752876,399.000000
771.767577,964.000000
771.782278,2110.000000
771.796979,1667.000000
771.811680,643.000000
771.826380,172.000000
771.841080,-2.000000
771.855780,35.000000
771.870480,-31.000000
771.885179,-25.000000
771.899879,0.000000
771.914578,51.000000
771.929277,-33.000000
771.943975,-36.000000
771.958674,-81.000000
771.973372,1.000000
771.988070,-23.000000
772.002768,-5.000000
772.017465,-50.000000
772.032163,-15.000000
772.046860,2.000000
772.061557,-14.000000
772.076253,-18.000000
772.090950,-4.000000
772.105646,-24.000000
772.120342,29.000000
772.135038,62.000000
772.149734,-44.000000
772.164429,-27.000000
772.179124,12.000000
772.193819,-19.000000
772.208514,-33.000000
772.223209,-21.000000
772.237903,-32.000000
772.252597,-6.000000
772.267291,56.000000
772.281985,-98.000000
772.296678,-53.000000
772.311372,-5.000000
772.326065,16.000000
772.340757,-24.000000
772.355450,-89.000000
772.370142,-98.000000
772.384835,-198.000000
772.399527,42.000000
772.414218,-130.500000
772.428910,61.000000
772.443601,-29.000000
772.458292,172.000000
772.472983,-72.000000
772.487674,-74.000000
772.502364,15.000000
772.517055,33.000000
772.531745,27.000000
772.546435,-9.000000
772.561124,-32.000000
772.575814,29.000000
772.590503,38.000000
772.605192,38.000000
772.619880,-52.000000
772.634569,-39.000000
772.649257,20.000000
772.663945,3.000000
772.678633,-63.000000
772.693321,-54.000000
772.708008,4.000000
772.722696,-25.000000
772.737383,-28.000000
772.752069,-7.000000
772.766756,-5.000000
772.781442,-15.000000
772.796129,9.000000
772.810814,-53.000000
772.825500,-17.000000
772.840186,-8.000000
772.854871,-10.000000
772.869556,28.000000
772.884241,-25.000000
772.898926,-82.000000
772.913610,54.000000
772.928294,29.000000
772.942978,-17.000000
772.957662,-34.000000
772.972346,-23.000000
772.987029,-29.000000
773.001712,-72.000000
773.016395,-33.000000
773.031078,18.000000
773.045760,0.000000
773.060442,-13.000000
773.075124,-14.000000
773.089806,-2.000000
773.104488,-48.000000
773.119169,0.000000
773.133850,-3.000000
773.148531,8.000000
773.163212,-49.000000
773.177893,-33.000000
773.192573,-14.000000
773.207253,-44.000000
773.221933,-42.000000
773.236613,-45.000000
773.251292,64.000000
773.265971,-44.000000
773.280650,-65.000000
773.295329,-10.000000
773.310008,15.000000
773.324686,24.000000
773.339364,-55.000000
773.354042,-30.000000
773.368720,-11.000000
773.383398,-11.000000
773.398075,8.000000
773.412752,-17.000000
773.427429,-25.000000
773.442105,-7.000000
773.456782,2.000000
773.471458,-17.000000
773.486134,-36.000000
773.500810,29.000000
773.515485,20.000000
773.530161,-14.000000
773.544836,-42.000000
773.559511,-71.000000
773.574185,-2.000000
773.588860,-34.000000
773.603534,-20.000000
773.618208,51.000000
773.632882,6.000000
773.647556,6.000000
773.662229,-29.000000
773.676902,-66.000000
773.691575,-49.000000
773.706248,38.000000
773.720920,6.000000
773.735593,-5.000000
773.750265,-25.000000
773.764937,16.000000
773.779608,2.000000
773.794280,-9.000000
773.808951,-72.000000
773.823622,-44.000000
773.838293,-25.000000
773.852963,27.000000
773.867633,-29.000000
773.882304,-5.000000
773.896974,-35.000000
773.911643,-12.000000
773.926313,-36.000000
773.940982,-25.000000
773.955651,-32.000000
773.970320,31.000000
773.984988,-6.000000
773.999657,-10.000000
774.014325,8.000000
774.028993,16.000000
774.043661,18.000000
774.058328,-5.000000
774.072995,-54.000000
774.087663,-36.000000
774.102329,-1.000000
774.116996,45.000000
774.131662,8.000000
774.146329,-1.000000
774.160995,171.000000
774.175660,838.000000
774.190326,2999.000000
774.204991,5579.000000
774.219656,3868.000000
774.234321,1306.000000
774.248986,212.000000
774.263651,103.000000
774.278315,-16.000000
774.292979,4.000000
774.307643,18.000000
774.322306,-16.000000
774.336970,-7.000000
774.351633,10.000000
774.366296,-10.000000
774.380958,20.000000
774.395621,-14.000000
774.410283,-37.000000
774.424945,18.000000
774.439607,-30.000000
774.454269,-7.000000
774.468930,-48.000000
774.483591,-47.000000
774.498252,3.000000
774.512913,30.000000
774.527574,-5.000000
774.542234,-70.000000
774.556894,-29.000000
774.571554,8.000000
774.586214,75.000000
774.600873,-65.000000
774.615532,11.000000
774.630191,46.000000
774.644850,-8.000000
774.659509,22.000000
774.674167,20.000000
774.688825,-58.000000
774.703483,-5.000000
774.718141,6.000000
774.732798,-10.000000
774.747456,-53.000000
774.762113,4.000000
774.776769,-2.000000
774.791426,-21.000000
774.806082,-39.000000
774.820739,0.000000
774.835395,17.000000
774.850050,31.000000
774.864706,-51.000000
774.879361,-82.000000
774.894016,11.000000
774.908671,5.000000
774.923326,8.000000
774.937980,-48.000000
774.952634,-20.000000
774.967288,-6.000000
774.981942,55.000000
774.996596,-37.000000
775.011249,-10.000000
775.025902,6.000000
775.040555,3.000000
775.055208,-29.000000
775.069860,-69.000000
775.084512,7.000000
775.099164,31.000000
775.113816,-9.000000
775.128468,3.000000
775.143119,-5.000000
775.157770,41.000000
775.172421,42.000000
775.187072,7.000000
775.201722,-34.000000
775.216373,-12.000000
775.231023,-18.000000
775.245672,-2.000000
775.260322,-24.000000
775.274971,-19.000000
775.289621,3.000000
775.304270,31.000000
775.318918,7.000000
775.333567,-27.000000
775.348215,-32.000000
775.362863,22.000000
775.377511,-60.000000
775.392159,-8.000000
775.406806,-52.000000
775.421453,67.000000
775.436100,-24.000000
775.450747,-24.000000
775.465394,-44.000000
775.480040,23.000000
775.494686,72.000000
775.509332,17.000000
775.523977,30.000000
775.538623,-15.000000
775.553268,3.000000
775.567913,1.000000
775.582558,-22.000000
775.597202,-22.000000
775.611847,-23.000000
775.626491,13.000000
775.641135,13.000000
775.655778,-34.000000
775.670422,-44.000000
775.685065,13.000000
775.699708,-9.000000
775.714351,-7.000000
775.728994,-64.000000
775.743636,-19.000000
775.758278,5.000000
775.772920,-40.000000
775.787562,14.000000
775.802203,-23.000000
775.816844,33.000000
775.831486,-49.000000
775.846126,-20.000000
775.860767,-54.000000
775.875407,17.000000
775.890047,27.000000
775.904687,-28.000000
775.919327,-20.000000
775.933967,-41.000000
775.948606,19.000000
775.963245,25.000000
775.977884,16.000000
775.992522,-10.000000
776.007161,31.000000
776.021799,60.000000
776.036437,2.000000
776.051075,-21.000000
776.065712,-25.000000
776.080350,0.000000
776.094987,47.000000
776.109623,-33.000000
776.124260,-26.000000
776.138897,-9.000000
776.153533,5.000000
776.168169,32.000000
776.182804,-15.000000
776.197440,25.000000
776.212075,-2.000000
776.226710,36.000000
776.241345,-2.000000
776.255980,-25.000000
776.270614,15.000000
776.285249,30.000000
776.299883,32.000000
776.314516,-74.000000
776.329150,1.000000
776.343783,19.000000
776.358416,92.000000
776.373049,38.000000
776.387682,-11.000000
776.402314,2.000000
776.416947,15.000000
776.431579,54.000000
776.446210,35.000000
776.460842,-41.000000
776.475473,1.000000
776.490104,30.000000
776.504735,0.000000
776.519366,-24.000000
776.533996,-3.000000
776.548627,25.000000
776.563257,52.000000
776.577886,116.000000
776.592516,234.000000
776.607145,1060.000000
776.621774,4580.000000
776.636403,11842.000000
776.651032,11033.000000
776.665661,3665.000000
776.680289,776.000000
776.694917,207.000000
776.709545,83.000000
776.724172,5.000000
776.738800,1.000000
776.753427,64.000000
776.768054,-8.000000
776.782680,-23.000000
776.797307,2.000000
776.811933,21.000000
776.826559,-18.000000
776.841185,-31.000000
776.855811,-26.000000
776.870436,3.000000
776.885061,74.000000
776.899686,38.000000
776.914311,11.000000
776.928935,-4.000000
776.943559,27.000000
776.958183,-18.000000
776.972807,-54.000000
776.987431,-29.000000
777.002054,33.000000
777.016677,56.000000
777.031300,-15.000000
777.045923,37.000000
777.060546,18.000000
777.075168,40.000000
777.089790,31.000000
777.104412,46.000000
777.119033,15.000000
777.133655,24.000000
777.148276,63.000000
777.162897,-22.000000
777.177518,35.000000
777.192138,-32.000000
777.206758,56.000000
777.221378,9.000000
777.235998,14.000000
777.250618,-46.000000
777.265237,26.000000
777.279856,-10.000000
777.294475,-24.000000
777.309094,-71.000000
777.323712,-7.000000
777.338331,18.000000
777.352949,19.000000
777.367567,-5.000000
777.382184,-31.000000
777.396802,-26.000000
777.411419,52.000000
777.426036,3.000000
777.440652,-34.000000
777.455269,-25.000000
777.469885,15.000000
777.484501,8.000000
777.499117,-48.000000
777.513733,2.000000
777.528348,33.000000
777.542963,-16.000000
777.557578,17.000000
777.572193,-37.000000
777.586807,30.000000
777.601422,0.000000
777.616036,-17.000000
777.630650,-16.000000
777.645263,10.000000
777.659877,20.000000
777.674490,21.000000
777.689103,47.000000
777.703715,-33.000000
777.718328,27.000000
777.732940,56.000000
777.747552,27.000000
777.762164,6.000000
777.776776,-16.000000
777.791387,-83.000000
777.805998,8.000000
777.820609,-15.000000
777.835220,-42.000000
777.849830,-23.000000
777.864441,36.000000
777.879051,55.000000
777.893661,27.000000
777.908270,-51.000000
777.922880,-58.000000
777.937489,-9.000000
777.952098,-18.000000
777.966706,-31.000000
777.981315,-11.000000
777.995923,33.000000
778.010531,35.000000
778.025139,-17.000000
778.039747,-81.000000
778.054354,42.000000
778.068961,11.000000
778.083568,30.000000
778.098175,57.000000
778.112781,9.000000
778.127387,36.000000
778.141993,5.000000
778.156599,-52.000000
778.171205,-33.000000
778.185810,-36.000000
778.200415,99.000000
778.215020,-2.000000
778.229625,-15.000000
778.244229,-5.000000
778.258834,38.000000
778.273438,31.000000
778.288042,-17.000000
778.302645,-41.000000
778.317248,-43.000000
778.331852,18.000000
778.346455,-10.000000
778.361057,-3.000000
778.375660,6.000000
778.390262,10.000000
778.404864,36.000000
778.419466,10.000000
778.434067,-3.000000
778.448669,2.000000
778.463270,7.000000
778.477871,-60.000000
778.492471,-38.000000
778.507072,-13.000000
778.521672,22.000000
778.536272,25.000000
778.550872,7.000000
778.565471,-11.000000
778.580071,-34.000000
778.594670,25.000000
778.609269,-78.000000
778.623867,-13.000000
778.638466,-4.000000
778.653064,-13.000000
778.667662,35.000000
778.682260,-8.000000
778.696857,-22.000000
778.711455,14.000000
778.726052,45.000000
778.740649,19.000000
778.755245,-35.000000
778.769842,-18.000000
778.784438,-24.000000
778.799034,18.000000
778.813630,5.000000
778.828225,-41.000000
778.842820,-34.000000
778.857415,10.000000
778.872010,17.000000
778.886605,-65.000000
778.901199,15.000000
778.915794,27.000000
778.930387,37.000000
778.944981,24.000000
778.959575,55.000000
778.974168,84.000000
778.988761,98.000000
779.003354,86.000000
779.017947,119.000000
779.032539,240.000000
779.047131,699.000000
779.061723,3353.000000
779.076315,14575.000000
779.090906,35019.000000
779.105498,20876.000000
779.120089,4382.000000
779.134679,979.000000
779.149270,228.000000
779.163860,32.000000
779.178450,15.000000
779.193040,22.000000
779.207630,25.000000
779.222220,-124.000000
779.236809,-43.000000
779.251398,-1.000000
779.265987,25.000000
779.280575,-2.000000
779.295164,-17.000000
779.309752,-60.000000
779.324340,4.000000
779.338927,-14.000000
779.353515,-40.000000
779.368102,21.000000
779.382689,10.000000
779.397276,36.000000
779.411862,-22.000000
779.426449,9.000000
779.441035,25.000000
779.455621,94.000000
779.470206,-57.000000
779.484792,46.000000
779.499377,-15.000000
779.513962,56.000000
779.528547,50.000000
779.543131,21.000000
779.557715,-1.000000
779.572299,20.000000
779.586883,-2.000000
779.601467,21.000000
779.616050,1.000000
779.630634,75.000000
779.645216,-7.000000
779.659799,37.000000
779.674382,1.000000
779.688964,-28.000000
779.703546,32.000000
779.718128,6.000000
779.732709,0.000000
779.747291,-8.000000
779.761872,-16.000000
779.776453,-42.000000
779.791034,-22.000000
779.805614,0.000000
779.820194,-88.000000
779.834774,7.000000
779.849354,36.000000
779.863934,14.000000
779.878513,-40.000000
779.893092,-77.000000
779.907671,47.000000
779.922250,-1.000000
779.936828,-12.000000
779.951406,-2.000000
779.965984,-1.000000
779.980562,-19.000000
779.995140,-62.000000
780.009717,-32.000000
780.024294,-24.000000
780.038871,-17.000000
780.053448,4.000000
780.068024,-30.000000
780.082600,-16.000000
780.097176,-52.000000
780.111752,23.000000
780.126327,8.000000
780.140903,-40.000000
780.155478,-8.000000
780.170053,-11.000000
780.184627,-30.000000
780.199202,-38.000000
780.213776,-37.000000
780.228350,-45.000000
780.242923,-15.000000
780.257497,-43.000000
780.272070,-61.000000
780.286643,4.000000
780.301216,23.000000
780.315788,-9.000000
780.330361,-53.000000
780.344933,-56.000000
780.359505,31.000000
780.374077,-24.000000
780.388648,-11.000000
780.403219,-57.000000
780.417790,-2.000000
780.432361,38.000000
780.446931,0.000000
780.461502,-61.000000
780.476072,-20.000000
780.490642,-10.000000
780.505211,-22.000000
780.519781,-9.000000
780.534350,-46.000000
780.548919,-23.000000
780.563488,3.000000
780.578056,-18.000000
780.592624,-35.000000
780.607192,-36.000000
780.621760,16.000000
780.636328,-34.000000
780.650895,-29.000000
780.665462,-31.000000
780.680029,-40.000000
780.694596,14.000000
780.709162,16.000000
780.723729,-38.000000
